# :::::::::::::::::::::::::::::::::::
# ::          CEA (pi+ n)          ::
# :::::::::::::::::::::::::::::::::::

# C. N. Brown et al., Phys. Rev. D 8, 92 (1973)


$vars: w (GeV) & qsquared (GeV^2) & thetacm (deg) & epsilon & phi (deg) & diff_phi


# W (GeV)    Q^2 (GeV^2)    theta (deg)        epsilon      phi (deg)       sigma_phi (ub/sr)
# -------    -----------    -----------        -------      ---------       -----------------
  1.684          0.340          12.44          0.961           14.1       6.4200     2.3368
  1.697          0.324          10.43          0.967           15.0      12.5200     1.5512
  1.717          0.365          19.86          0.961            7.2       6.0900     2.6116
  1.721          0.311           8.34          0.959           16.9      13.8700     1.3060
  1.735          1.486          27.40          0.879            6.8       1.2000     0.3267
  1.742          0.364          18.22          0.958            6.3       4.3300     1.3708
  1.747          0.991          26.10          0.913            2.6       1.9500     0.7576
  1.751          0.305           6.04          0.956           16.3      14.5200     1.4001
  1.761          0.303           5.98          0.955           29.5      14.8800     1.2091
  1.764          0.337          15.54          0.957            6.8       7.3000     1.1710
  1.774          0.295           4.22          0.953           17.8      14.3300     1.8829
  1.784          0.293           4.21          0.952           33.9      14.3400     1.4696
  1.795          0.488           7.76          0.939           14.5       7.4400     1.0344
  1.797          0.961          22.40          0.906            2.6       2.5700     0.6164
  1.798          0.299           3.04          0.950           18.0      17.0600     2.4378
  1.804          0.298           3.05          0.949           32.7      14.5100     1.6289
  1.805          1.437          22.60          0.868            3.6       1.1700     0.3854
  1.807          0.362          17.70          0.953            5.7       5.6500     1.5514
  1.808          0.331          13.07          0.952            8.9       8.0700     1.7667
  1.808          0.331          13.07          0.952            8.9       6.9000     0.9860
  1.811          0.290           1.85          0.949           15.8      12.1300     2.2702
  1.812          0.476           6.56          0.937           15.0       9.9400     1.1397
  1.813          0.290           1.85          0.949           32.5      13.3200     1.7871
  1.814          0.476           6.55          0.937           17.8       9.8500     1.0936
  1.815          0.228          15.10          0.937            3.6       7.1000     1.4727
  1.826          0.951          20.30          0.902            5.1       2.1400     0.4458
  1.827          0.472           5.41          0.935           16.7       9.9700     1.1056
  1.831          0.475          11.38          0.934            8.9       6.2300     0.9444
  1.832          0.471           5.39          0.934           24.9      10.5000     1.0359
  1.835          0.342          15.50          0.950            6.3       5.8800     1.0796
  1.835          0.476          17.31          0.934            4.4       3.5600     0.7655
  1.836          1.430          20.30          0.861            4.4       2.3400     0.4584
  1.840          0.289           1.89          0.945           85.4      16.5200     2.9532
  1.841          0.466           4.28          0.933           16.3      10.0200     1.1506
  1.842          0.354          15.50          0.940            4.4       4.1400     0.7456
  1.845          0.290           0.81          0.944           87.1      10.6700     1.5457
  1.846          0.296           1.93          0.943           86.3      14.1400     2.5038
  1.848          0.289           3.02          0.944           94.4      12.4000     1.9155
  1.848          0.292           3.06          0.943           90.9      11.2000     1.8176
  1.848          0.465           4.23          0.932           29.8       9.8200     0.9487
  1.849          0.295           4.14          0.943           87.6       9.5900     1.5995
  1.850          0.290           4.16          0.943           93.1      14.9900     2.0345
  1.851          0.322          10.60          0.947           12.8       6.6200     1.5922
  1.851          0.322          10.60          0.947           12.8       8.1900     0.9268
  1.851          0.469          10.18          0.931            9.9       9.2400     1.0951
  1.853          0.218          12.90          0.930            5.7       5.7600     0.8326
  1.853          0.471          16.18          0.931            5.7       3.5200     0.6782
  1.860          0.462           3.05          0.930           17.6      10.8900     1.3501
  1.866          0.941          17.80          0.894            4.4       2.6100     0.4344
  1.867          0.287           1.84          0.941          143.5      11.8300     1.8016
  1.867          0.461           3.04          0.929           34.1      11.0800     1.0622
  1.872          0.286           1.86          0.940          162.9      10.9800     2.4651
  1.872          0.463          14.96          0.928            5.7       4.8800     0.7125
  1.872          0.467           8.92          0.928           12.3       7.8000     0.9521
  1.875          1.396          17.90          0.854            5.7       1.8800     0.3746
  1.877          0.463          20.90          0.928            3.6       3.4400     0.6962
  1.878          0.334          13.00          0.945            8.1       4.7800     0.8231
  1.878          0.455           1.82          0.928           19.1      10.9100     1.6342
  1.881          0.455           1.85          0.927           33.7       9.9000     1.1474
  1.886          0.346          13.20          0.934           22.8       5.6300     0.7200
  1.887          0.285           3.02          0.938          145.0      12.3200     1.3694
  1.890          0.457           7.74          0.926           14.1       9.9400     1.0445
  1.891          0.281           3.03          0.937          162.5      11.4100     1.7094
  1.893          0.458          13.78          0.925            7.2       5.0800     0.6892
  1.894          0.320           8.40          0.941           14.5       6.5200     1.4840
  1.894          0.320           8.40          0.941           14.5       9.8000     0.9481
  1.895          0.456          19.87          0.925            3.6       3.3900     0.6474
  1.897          0.211          10.70          0.921            7.7       7.5600     0.7632
  1.901          0.923          15.50          0.888            6.3       3.8600     0.4885
  1.906          0.453           1.85          0.923           91.2      10.9600     1.5426
  1.908          0.451           0.80          0.922           94.0      11.0500     1.1532
  1.908          0.457           1.81          0.922           88.4      13.3600     1.7607
  1.909          0.283           4.22          0.934          147.1       9.3800     1.0461
  1.909          0.449           2.91          0.922           90.4      10.8800     1.3678
  1.909          0.452           2.98          0.922           88.6      12.7400     1.7467
  1.912          0.448           3.98          0.922           93.1      14.3000     2.4308
  1.912          1.364          15.40          0.848            7.2       1.4700     0.2914
  1.913          0.453           4.17          0.921           91.6      11.4600     1.5994
  1.913          0.457           6.60          0.921           15.6       9.6700     1.0027
  1.914          0.450          12.54          0.922            7.2       6.0800     0.7399
  1.916          0.281           4.23          0.933          160.6      10.0300     1.4676
  1.917          0.457           6.59          0.920           20.3      10.3700     1.0071
  1.925          0.462          18.47          0.919            4.4       2.7000     0.5890
  1.930          0.450           5.39          0.919           16.5      11.0700     1.1032
  1.933          0.448           1.88          0.918          145.8      10.2100     1.0523
  1.935          0.312           6.07          0.935           16.5      12.4300     1.9629
  1.935          0.312           6.07          0.935           16.5      11.2700     1.0682
  1.935          0.450           5.37          0.917           24.4      10.6300     0.9668
  1.936          0.277           6.00          0.930          148.5      10.0700     0.8165
  1.936          0.340          10.60          0.925           10.3       7.7100     0.7677
  1.938          0.448          17.42          0.917            4.4       3.2800     0.5788
  1.938          0.452          11.38          0.917            8.9       6.7500     0.7399
  1.939          0.448           1.91          0.917          163.1       9.2500     1.2575
  1.939          0.903          13.00          0.881            8.1       3.5700     0.4189
  1.943          0.310           4.03          0.934           26.6      12.7900     1.6749
  1.943          0.310           4.03          0.934           26.6      10.8800     0.9362
  1.946          1.349          13.10          0.840            7.7       1.7600     0.2868
  1.947          0.276           6.05          0.928          162.2       9.5500     0.9404
  1.949          0.445           3.02          0.915          148.4       9.7300     0.8497
  1.949          0.446           4.23          0.915           15.8      11.5900     1.1691
  1.952          0.445           3.00          0.914          162.2      10.1200     1.0753
  1.954          0.206           8.30          0.907           11.2       9.3400     0.7673
  1.957          0.444           4.22          0.914           29.2      11.6200     1.0007
  1.958          0.441          10.15          0.914           10.6       7.6800     0.7420
  1.963          0.444          16.26          0.912            5.1       3.4700     0.5633
  1.968          0.438           4.26          0.911          147.8      10.4800     0.8392
  1.970          0.440           3.05          0.911           17.8      12.3400     1.3267
  1.972          0.306           4.20          0.929           17.8      12.5200     2.8155
  1.972          0.306           4.20          0.929           17.8      10.4800     1.4129
  1.972          0.332          10.70          0.938            9.9       7.4800     0.8379
  1.975          0.321           8.30          0.931           13.8       9.8700     0.9097
  1.975          0.437           3.04          0.910           31.9      12.3400     1.0956
  1.975          0.883          10.70          0.874           10.6       4.8800     0.4817
  1.976          0.329           8.40          0.918           13.6       9.9600     0.8273
  1.977          0.438           4.25          0.910          163.3       9.6000     0.9172
  1.980          0.305           4.18          0.927           32.7      11.9100     2.1807
  1.980          0.305           4.18          0.927           32.7      12.0100     1.2575
  1.980          1.322          10.70          0.832           10.9       2.1400     0.3130
  1.981          0.439           9.02          0.909           12.8       9.7700     0.8511
  1.985          0.295           3.02          0.925           16.0      11.4000     3.2314
  1.985          0.295           3.02          0.925           16.0      11.9400     1.7666
  1.986          0.433           1.86          0.908           18.0      14.1400     1.7970
  1.989          0.437           5.38          0.907          152.2       8.5400     0.6860
  1.989          0.438          15.04          0.907            6.3       3.9200     0.5629
  1.991          0.292           3.03          0.926           31.9      12.6600     2.4798
  1.991          0.292           3.03          0.926           31.9      11.3400     1.3259
  1.991          0.434           1.85          0.907           33.1      12.1800     1.2287
  1.992          0.269           8.41          0.920          163.3       7.8700     0.7561
  1.994          0.431          21.01          0.907            3.6       2.4200     0.3651
  1.995          0.435           5.41          0.906          163.7       8.3700     0.7483
  2.006          0.432           7.80          0.904           15.0       8.7700     0.7698
  2.009          0.197           6.00          0.895           15.2      10.7100     0.7991
  2.009          0.429           6.58          0.903          154.7       8.1700     0.6431
  2.011          0.430          13.84          0.903            7.7       4.9800     0.5877
  2.012          0.866           8.40          0.865           13.8       5.7000     0.5082
  2.014          0.301           1.94          0.921           18.0       9.3600     4.0429
  2.014          0.301           1.94          0.921           18.0      14.8500     2.5352
  2.014          0.426           6.60          0.902          163.9       7.7400     0.6720
  2.016          0.197           5.90          0.893           20.4      11.0900     0.7951
  2.018          0.312           6.00          0.924           15.4      11.6700     1.0101
  2.019          0.299           1.92          0.921           33.6      11.3900     2.8887
  2.019          0.299           1.92          0.921           33.6      14.1800     1.8341
  2.019          0.428           1.91          0.901           88.3       9.8700     1.3720
  2.019          1.292           8.40          0.823           12.6       3.0600     0.3616
  2.020          0.426           0.81          0.901           93.0      11.0600     1.0863
  2.020          0.429           1.86          0.901           89.5      12.4800     1.6405
  2.021          0.425          19.77          0.901            4.4       2.2300     0.3427
  2.022          0.430           2.99          0.900           90.3       8.8600     1.2859
  2.023          0.425           4.11          0.900           91.1       9.7100     1.3135
  2.023          0.428           3.01          0.900           89.9      10.9200     1.3598
  2.025          0.427           4.14          0.900           91.3      12.4100     1.8598
  2.027          0.310           6.00          0.922           25.3      11.3900     0.9100
  2.027          0.427           6.56          0.900           14.3       9.9000     0.8403
  2.029          0.320           6.00          0.907           15.6      11.4900     0.8994
  2.032          0.261          10.68          0.912          164.4       5.9900     0.6326
  2.032          0.426           6.54          0.899           20.9      10.2100     0.8218
  2.033          0.285           1.93          0.919           86.8       8.0000     3.7459
  2.033          0.285           1.93          0.919           86.8       6.8400     1.7021
  2.035          0.319           5.90          0.923           22.6      11.0100     0.8180
  2.036          0.424           7.80          0.897          163.9       6.9900     0.5919
  2.036          0.425          12.60          0.897            8.5       6.0700     0.6349
  2.042          0.292           3.05          0.916           81.8      11.8900     3.4230
  2.042          0.292           3.05          0.916           81.8       7.5500     1.4603
  2.042          0.419          18.55          0.896            4.4       3.0800     0.3799
  2.043          0.289           0.82          0.916           85.6      11.7700     2.8446
  2.043          0.289           0.82          0.916           85.6      11.6500     1.6495
  2.048          0.423           1.84          0.895          146.2      10.0000     0.9957
  2.049          0.192           4.20          0.884           15.4      11.7800     1.0608
  2.049          0.423           5.41          0.895           16.3      10.6800     0.8910
  2.051          0.287           4.19          0.915           90.3      12.2600     3.5447
  2.051          0.287           4.19          0.915           90.3      11.3400     1.9050
  2.052          0.295           2.97          0.914           88.3      11.4400     3.4086
  2.052          0.295           2.97          0.914           88.3       8.4400     1.7622
  2.052          0.421           1.85          0.894          162.4      10.5100     1.2960
  2.052          0.846           6.00          0.856           15.0       6.0900     0.5372
  2.053          0.307           4.30          0.917           15.0      11.1700     1.3038
  2.055          0.191           4.20          0.882           25.2      10.8600     0.8976
  2.055          0.416           9.02          0.893          164.6       6.4900     0.5436
  2.055          0.421           5.40          0.893           24.3      10.7100     0.8267
  2.057          0.298           1.88          0.913           89.0       6.9300     3.1333
  2.057          0.298           1.88          0.913           89.0       7.5300     1.6140
  2.057          1.262           6.00          0.814           16.7       3.4800     0.3989
  2.058          0.291           4.04          0.913           90.1       6.7900     3.9079
  2.058          0.291           4.04          0.913           90.1       9.8000     2.0521
  2.059          0.418          11.41          0.892            9.2       7.8600     0.7314
  2.059          0.843           5.90          0.854           23.5       6.2900     0.5065
  2.060          0.305           4.30          0.916           28.5      10.6300     1.0649
  2.063          1.259           5.90          0.812           23.9       3.7300     0.3801
  2.064          0.314           4.20          0.900           16.5      12.5000     1.2384
  2.066          0.415           3.02          0.891          145.8       9.2400     0.8094
  2.069          0.414          17.43          0.890            5.7       3.3700     0.4049
  2.070          0.416           4.23          0.890           16.1      11.5200     0.9895
  2.072          0.312           4.20          0.898           28.5      11.9900     1.0291
  2.074          0.416           3.05          0.889          162.2       8.6100     0.9383
  2.075          0.285           1.80          0.910          143.5       9.0500     2.7947
  2.075          0.285           1.80          0.910          143.5       5.6200     1.1715
  2.076          0.411          10.19          0.888          165.0       5.7500     0.4792
  2.077          0.299           3.10          0.913           17.8      12.4400     1.5493
  2.077          0.414           4.20          0.888           28.7      11.0100     0.8525
  2.077          0.419          17.41          0.888            2.6       1.9900     1.3046
  2.078          0.187           3.00          0.876           16.7       9.8300     0.9990
  2.081          0.284           1.71          0.909          162.5       7.3100     3.6522
  2.081          0.284           1.71          0.909          162.5       5.7600     1.6998
  2.082          0.835           4.20          0.848           16.9       7.0600     0.8005
  2.084          0.413          10.22          0.887           11.2       8.4600     0.7672
  2.085          1.240           4.20          0.807           15.2       5.1100     0.7266
  2.086          0.187           3.00          0.873           30.1       9.5700     0.8286
  2.086          0.298           3.00          0.911           31.2      11.4600     1.1736
  2.087          0.408           4.20          0.886          148.4       8.9800     0.7467
  2.087          0.830           4.20          0.847           28.8       6.6600     0.6608
  2.088          0.308           3.00          0.894           17.2      10.4300     1.1790
  2.090          0.253          13.21          0.899          168.2       6.0000     0.6673
